
Integration time [ms]:   1.500
Averaging Nr. [scans]: 100
Smoothing Nr. [pixels]: 3
Data measured with spectrometer [name]: 1908047U1
Wave   ;Sample   ;Dark     ;Reference;Scope
[nm]   ;[counts] ;[counts] ;[counts] 

128.909;  483.977;   -0.956;   81.480
129.461;  494.976;   -2.716;   68.201
130.013;  518.510;   -5.226;  127.577
130.565;  509.190;   -5.833;   92.420
131.118;  512.969;   -7.108;   92.061
131.670;  513.354;   -8.558;   89.289
132.222;  516.586;   -9.323;   90.332
132.774;  520.516;   -9.738;   93.177
133.326;  520.234;   -9.531;   87.110
133.879;  529.780;   -9.040;  112.505
134.431;  533.801;   -8.584;  114.788
134.983;  539.324;   -7.924;  120.104
135.536;  549.982;   -6.583;  140.699
136.088;  554.352;   -5.250;  143.215
136.640;  562.679;   -3.798;  161.972
137.193;  572.671;   -2.756;  177.550
137.745;  573.683;   -1.884;  166.469
138.297;  580.581;   -1.080;  175.815
138.850;  583.603;    0.217;  169.282
139.402;  579.326;    1.163;  145.747
139.955;  580.387;    1.837;  140.625
140.507;  580.763;    1.986;  135.541
141.059;  582.129;    2.133;  140.475
141.612;  574.647;    2.262;  118.250
142.164;  572.046;    2.540;  108.850
142.717;  570.554;    2.220;  110.377
143.269;  579.105;    2.054;  127.122
143.822;  581.610;    1.553;  131.258
144.374;  581.114;    1.423;  117.332
144.927;  589.416;    1.552;  138.005
145.479;  602.101;    1.683;  164.124
146.032;  603.940;    1.249;  162.761
146.585;  596.135;    0.549;  159.004
147.137;  595.551;    0.057;  154.978
147.690;  601.535;    0.379;  162.423
148.242;  605.068;    0.360;  165.702
148.795;  598.438;   -0.123;  135.965
149.348;  610.813;   -0.437;  161.531
149.900;  616.521;   -0.683;  168.784
150.453;  626.795;   -0.416;  167.544
151.006;  626.707;   -0.317;  157.140
151.558;  620.699;   -0.691;  131.408
152.111;  620.515;   -1.101;  125.534
152.664;  623.791;   -1.121;  125.643
153.217;  652.180;   -0.413;  165.077
153.769;  665.150;    0.327;  186.637
154.322;  676.562;    0.566;  207.353
154.875;  680.624;    0.433;  221.057
155.428;  686.597;    0.063;  236.716
155.981;  688.781;    0.100;  236.154
156.533;  692.451;    0.427;  245.665
157.086;  660.103;   -0.161;  187.529
157.639;  645.470;   -0.830;  156.059
158.192;  645.553;   -1.161;  153.487
158.745;  650.097;   -1.164;  150.934
159.298;  656.044;   -0.594;  162.720
159.851;  661.139;   -0.151;  179.672
160.403;  664.308;   -0.346;  180.200
160.956;  671.279;   -0.558;  191.508
161.509;  677.367;   -0.891;  209.365
162.062;  677.914;   -0.766;  210.421
162.615;  680.813;   -0.300;  215.667
163.168;  678.978;   -0.528;  206.383
163.721;  680.432;   -0.731;  201.954
164.274;  679.568;   -0.873;  194.270
164.827;  671.848;   -0.904;  165.926
165.380;  676.783;   -0.003;  167.377
165.933;  689.923;    0.656;  194.129
166.486;  701.697;    0.630;  223.380
167.039;  703.114;    0.490;  223.937
167.592;  701.431;    0.099;  220.099
168.145;  702.058;    0.239;  219.343
168.698;  706.851;    0.633;  233.576
169.251;  713.651;    0.546;  250.380
169.805;  704.308;   -0.151;  231.070
170.358;  694.455;   -0.627;  205.186
170.911;  694.780;   -0.514;  206.950
171.464;  700.547;    0.264;  213.754
172.017;  702.703;    0.496;  212.202
172.570;  702.508;   -0.048;  204.650
173.123;  690.153;   -0.650;  165.281
173.677;  686.699;   -0.624;  145.419
174.230;  689.098;   -0.040;  137.518
174.783;  691.704;    0.146;  128.423
175.336;  693.849;   -0.388;  122.164
175.889;  697.710;   -0.823;  131.546
176.443;  700.727;   -0.943;  142.725
176.996;  704.575;   -0.631;  150.585
177.549;  711.133;   -0.251;  152.597
178.102;  707.842;   -0.776;  154.093
178.656;  712.798;   -1.050;  162.210
179.209;  731.300;   -0.793;  194.327
179.762;  740.486;   -0.216;  200.188
180.316;  747.618;    0.432;  195.494
180.869;  757.190;    0.357;  203.059
181.422;  761.773;   -0.097;  206.060
181.976;  774.910;   -0.141;  208.198
182.529;  780.167;   -0.067;  209.382
183.082;  775.925;    0.160;  195.925
183.636;  785.109;    0.277;  209.978
184.189;  796.858;    0.227;  223.233
184.742;  803.135;    0.203;  222.744
185.296;  813.941;    0.527;  234.617
185.849;  821.410;    1.033;  243.134
186.403;  834.142;    1.534;  258.465
186.956;  845.341;    1.486;  272.314
187.510;  838.682;    0.730;  250.674
188.063;  836.651;    0.337;  233.093
188.616;  846.824;    0.616;  242.778
189.170;  865.370;    1.193;  268.651
189.723;  876.014;    1.132;  275.893
190.277;  883.743;    0.729;  277.982
190.830;  879.631;    0.172;  253.698
191.384;  890.211;    0.529;  255.823
191.937;  898.503;    0.950;  258.270
192.491;  903.182;    0.780;  249.932
193.044;  897.771;    0.199;  221.050
193.598;  900.776;   -0.220;  206.899
194.152;  905.224;   -0.194;  192.022
194.705;  909.045;    0.213;  183.121
195.259;  916.709;    0.453;  178.953
195.812;  927.466;    0.172;  179.429
196.366;  933.181;   -0.017;  169.020
196.919;  946.395;   -0.017;  177.349
197.473;  963.354;    0.549;  197.773
198.027;  976.139;    0.733;  210.611
198.580;  992.130;    0.504;  218.090
199.134; 1020.124;    0.286;  251.004
199.688; 1042.392;    0.156;  279.800
200.241; 1056.810;    0.460;  287.300
200.795; 1076.108;    0.899;  301.186
201.349; 1089.154;    0.862;  299.919
201.902; 1094.485;    0.462;  282.093
202.456; 1110.864;    0.543;  285.254
203.010; 1118.901;    0.820;  271.297
203.563; 1120.483;    1.349;  241.150
204.117; 1131.477;    1.250;  235.284
204.671; 1131.940;    0.706;  203.856
205.224; 1145.533;    0.377;  201.152
205.778; 1167.089;    0.616;  210.287
206.332; 1176.057;    0.850;  193.502
206.886; 1179.507;    0.677;  169.325
207.439; 1198.355;    0.339;  170.309
207.993; 1218.470;    0.123;  170.826
208.547; 1253.305;    0.220;  197.406
209.101; 1284.691;    0.629;  213.198
209.655; 1315.560;    0.942;  223.561
210.208; 1350.277;    0.852;  234.685
210.762; 1389.178;    0.606;  240.586
211.316; 1435.157;    0.357;  259.985
211.870; 1484.611;    0.616;  271.264
212.424; 1520.698;    0.707;  251.076
212.978; 1566.633;    0.354;  234.412
213.531; 1620.679;   -0.331;  230.097
214.085; 1705.609;   -0.361;  265.819
214.639; 1789.514;   -0.186;  298.030
215.193; 1878.961;    0.516;  327.768
215.747; 1956.324;    0.559;  339.924
216.301; 2049.750;    0.333;  378.115
216.855; 2120.061;    0.040;  380.979
217.408; 2187.859;    0.102;  385.425
217.962; 2255.745;    0.507;  398.915
218.516; 2321.470;    0.750;  412.690
219.070; 2376.017;    0.286;  414.748
219.624; 2455.840;   -0.047;  468.086
220.178; 2521.904;   -0.281;  503.832
220.732; 2605.843;    0.163;  559.737
221.286; 2712.534;    0.552;  639.033
221.840; 2817.930;    0.197;  688.959
222.394; 2954.538;   -0.250;  748.833
222.948; 3133.503;   -0.606;  814.889
223.502; 3371.017;   -0.263;  874.108
224.056; 3714.824;    0.542;  981.147
224.610; 4147.166;    0.659; 1079.019
225.164; 4676.407;    0.507; 1148.415
225.718; 5334.706;    0.254; 1222.435
226.272; 6143.234;    0.537; 1299.885
226.826; 7130.975;    1.133; 1396.841
227.380; 8277.597;    1.299; 1478.244
227.934; 9619.512;    1.149; 1574.331
228.488;11115.474;    0.656; 1663.035
229.042;12765.837;    0.607; 1761.206
229.596;14553.357;    1.153; 1869.580
230.150;16469.324;    1.426; 2018.704
230.704;18403.180;    1.319; 2124.937
231.258;20351.424;    0.973; 2227.511
231.812;22245.340;    0.672; 2288.332
232.366;24080.574;    1.106; 2359.752
232.920;25814.855;    1.500; 2434.752
233.475;27364.611;    1.270; 2478.347
234.029;28755.953;    0.827; 2519.393
234.583;29970.635;    0.623; 2576.057
235.137;30973.582;    0.583; 2617.121
235.691;31783.322;    0.956; 2652.944
236.245;32409.951;    0.967; 2687.143
236.799;32837.094;    0.484; 2698.259
237.353;33162.637;    0.032; 2752.390
237.907;33296.723;    0.153; 2761.727
238.462;33329.215;    0.413; 2785.468
239.016;33261.852;    0.717; 2812.104
239.570;33081.465;    0.362; 2827.286
240.124;32802.840;   -0.247; 2822.374
240.678;32498.297;   -0.058; 2856.755
241.232;32101.670;    0.580; 2850.436
241.787;31658.533;    0.866; 2825.305
242.341;31166.500;    0.844; 2775.853
242.895;30662.230;    0.547; 2729.929
243.449;30128.580;    0.470; 2661.678
244.003;29633.709;    0.993; 2640.098
244.558;29128.309;    1.139; 2596.839
245.112;28657.008;    0.827; 2559.348
245.666;28243.195;    0.262; 2550.339
246.220;27910.756;   -0.176; 2576.008
246.774;27638.580;    0.074; 2613.732
247.329;27452.072;    0.366; 2665.573
247.883;27347.365;    0.383; 2716.526
248.437;27337.645;    0.142; 2772.716
248.991;27486.117;    0.247; 2899.593
249.546;27710.146;    0.579; 3009.092
250.100;28007.299;    1.172; 3096.640
250.654;28434.047;    1.290; 3213.949
251.208;28960.459;    0.979; 3342.878
251.763;29596.514;    0.759; 3492.765
252.317;30476.395;    1.510; 3802.482
252.871;31297.977;    1.807; 3958.187
253.425;32234.307;    2.212; 4150.249
253.980;33320.398;    2.153; 4415.629
254.534;34434.762;    1.869; 4636.183
255.088;35623.375;    1.747; 4869.483
255.642;36903.250;    1.882; 5141.348
256.197;38134.453;    1.570; 5310.366
256.751;39538.266;    1.357; 5628.093
257.305;40939.063;    0.804; 5929.252
257.860;42329.469;    0.476; 6235.714
258.414;43760.926;    0.497; 6637.004
258.968;45169.254;    1.073; 7066.455
259.523;46493.965;    1.457; 7492.314
260.077;47661.520;    1.330; 7883.355
260.631;48650.340;    0.829; 8234.991
261.186;49503.336;    0.966; 8614.577
261.740;50149.188;    1.572; 8973.924
262.294;50574.332;    1.673; 9295.035
262.849;50854.504;    1.484; 9672.979
263.403;50919.023;    1.190;10019.032
263.957;50844.594;    0.854;10365.578
264.512;50613.133;    1.250;10705.432
265.066;50303.734;    1.463;11028.701
265.620;49969.430;    1.007;11322.521
266.175;49658.777;    0.616;11636.590
266.729;49323.238;    0.080;11821.056
267.283;49132.555;   -0.010;12053.292
267.838;49038.090;    0.469;12269.140
268.392;49068.234;    0.656;12475.800
268.946;49171.098;    0.369;12694.704
269.501;49319.574;    0.183;12898.050
270.055;49453.301;    0.549;13070.373
270.610;49494.555;    1.290;13247.700
271.164;49359.340;    1.603;13348.588
271.718;49063.066;    1.359;13437.129
272.273;48614.074;    1.006;13527.156
272.827;48007.934;    1.039;13589.958
273.381;47223.063;    1.626;13652.798
273.936;46323.059;    1.967;13693.679
274.490;45367.691;    1.659;13759.029
275.045;44341.844;    0.996;13775.910
275.599;43358.184;    0.789;13782.016
276.153;42469.707;    1.163;13820.409
276.708;41627.367;    1.484;13848.893
277.262;40918.363;    1.116;13903.695
277.817;40400.949;    0.623;14007.138
278.371;40054.000;    0.469;14136.773
278.925;39955.070;    1.012;14346.304
279.480;39998.852;    1.474;14613.256
280.034;40203.715;    1.289;14904.528
280.589;40684.879;    0.996;15302.363
281.143;41251.758;    0.656;15618.002
281.698;41946.176;    0.680;15940.294
282.252;42823.668;    1.693;16291.759
282.806;43767.000;    2.107;16682.402
283.361;44768.781;    1.740;17101.295
283.915;45789.383;    1.566;17561.377
284.470;46743.609;    1.603;17888.264
285.024;47630.180;    2.146;18173.012
285.579;48526.082;    2.663;18531.531
286.133;49356.816;    1.952;18901.814
286.687;50158.379;    1.124;19216.586
287.242;51049.617;    1.049;19572.494
287.796;51947.656;    1.319;19864.744
288.351;52967.473;    1.293;20240.389
288.905;54156.352;    1.307;20798.324
289.460;55260.926;    0.924;21286.486
290.014;56387.262;    0.769;21790.734
290.569;57493.129;    1.099;22316.279
291.123;58550.398;    1.524;22857.588
291.677;59498.094;    1.614;23385.848
292.232;60244.078;    1.654;23904.844
292.786;60828.594;    1.236;24358.730
293.341;61266.633;    1.123;24727.863
293.895;61579.980;    1.424;25123.277
294.450;61776.207;    1.734;25524.271
295.004;61825.445;    1.660;25811.418
295.559;61773.289;    1.344;26092.074
296.113;61637.832;    1.007;26333.066
296.667;61414.773;    1.153;26507.764
297.222;61211.527;    1.546;26739.646
297.776;60881.719;    1.497;26858.646
298.331;60448.965;    1.074;26864.711
298.885;59914.473;    0.813;26810.711
299.440;59358.836;    0.924;26722.340
299.994;58732.977;    1.496;26606.666
300.549;58142.082;    1.870;26585.238
301.103;57518.582;    1.510;26531.613
301.658;56937.848;    1.507;26449.648
302.212;56385.332;    1.649;26399.551
302.766;55836.375;    2.019;26372.904
303.321;55369.211;    2.332;26403.324
303.875;55024.898;    2.316;26491.959
304.430;54643.523;    1.829;26471.434
304.984;54299.027;    1.706;26514.270
305.539;54044.219;    1.530;26622.086
306.093;53911.195;    2.134;26824.564
306.648;53834.270;    1.822;27084.906
307.202;53705.402;    1.302;27340.906
307.757;53519.609;    0.894;27544.486
308.311;53412.336;    1.387;27814.803
308.865;53265.445;    1.893;28011.299
309.420;53102.820;    2.279;28199.574
309.974;52812.078;    1.633;28340.434
310.529;52449.816;    1.516;28338.043
311.083;52078.883;    1.613;28281.004
311.638;51596.477;    2.163;28047.199
312.192;51092.133;    2.329;27875.396
312.747;50614.059;    2.009;27810.410
313.301;50132.555;    1.543;27785.930
313.855;49702.523;    1.253;27746.797
314.410;49393.898;    1.904;27830.840
314.964;49174.828;    2.407;27972.625
315.519;49134.301;    2.216;28425.551
316.073;49141.242;    1.554;28824.047
316.628;49173.359;    1.422;29130.102
317.182;49281.344;    1.694;29528.285
317.736;49434.773;    2.139;29925.502
318.291;49602.563;    1.876;30299.746
318.845;49740.207;    1.516;30697.639
319.400;49753.711;    1.159;30855.463
319.954;49705.609;    1.423;31015.430
320.509;49647.215;    1.697;31209.553
321.063;49427.297;    1.430;31187.637
321.617;49163.875;    1.064;31147.822
322.172;48844.289;    0.469;31148.564
322.726;48458.984;    0.536;31027.078
323.281;48159.820;    1.067;31078.949
323.835;47823.852;    1.472;30995.207
324.390;47424.977;    1.394;30892.326
324.944;47013.371;    1.324;30724.332
325.498;46566.938;    1.257;30569.758
326.053;46071.012;    1.956;30409.090
326.607;45562.207;    2.116;30261.652
327.162;44972.984;    1.872;29994.971
327.716;44387.527;    1.424;29789.141
328.270;43774.613;    1.204;29503.053
328.825;43169.707;    1.574;29315.000
329.379;42642.113;    2.222;29152.016
329.934;42097.625;    2.087;28887.242
330.488;41571.770;    1.857;28662.639
331.042;41139.262;    1.616;28513.902
331.597;40773.656;    1.512;28416.201
332.151;40526.168;    2.052;28439.477
332.706;40428.938;    2.127;28491.287
333.260;40274.410;    1.584;28518.180
333.814;40263.414;    1.354;28708.705
334.369;40344.141;    1.309;28963.756
334.923;40410.648;    1.839;29207.672
335.477;40453.063;    2.197;29507.557
336.032;40457.055;    1.890;29740.414
336.586;40345.031;    1.540;29957.424
337.141;40242.602;    1.644;30124.875
337.695;40063.855;    2.210;30217.273
338.249;39767.945;    2.759;30163.551
338.804;39393.129;    2.517;30131.803
339.358;38982.512;    2.399;29945.625
339.912;38472.461;    2.323;29680.383
340.467;37937.609;    2.247;29450.922
341.021;37377.563;    2.737;29186.371
341.575;36795.453;    2.416;28884.750
342.130;36260.859;    1.889;28621.021
342.684;35750.016;    1.543;28255.734
343.238;35244.961;    1.394;27933.422
343.793;34845.555;    1.564;27596.031
344.347;34459.129;    1.837;27245.014
344.901;34101.137;    1.283;26948.455
345.456;33766.250;    1.007;26646.621
346.010;33357.801;    0.923;26303.057
346.564;33019.457;    1.790;25967.205
347.118;32627.742;    2.282;25617.910
347.673;32180.539;    2.040;25298.354
348.227;31705.408;    1.614;24984.043
348.781;31225.244;    1.683;24670.641
349.336;30680.887;    1.924;24409.111
349.890;30171.914;    2.314;24177.725
350.444;29607.439;    1.497;24041.117
350.998;29115.975;    0.779;23966.352
351.553;28648.896;    0.853;23894.701
352.107;28220.516;    1.294;23813.922
352.661;27805.676;    1.396;23740.139
353.215;27491.076;    1.484;23687.559
353.770;27243.494;    1.089;23711.092
354.324;27024.412;    1.049;23668.881
354.878;26848.453;    1.224;23576.838
355.432;26746.748;    1.434;23603.270
355.987;26691.639;    1.367;23579.992
356.541;26663.080;    1.234;23601.512
357.095;26641.359;    0.693;23586.143
357.649;26633.926;    0.537;23515.674
358.203;26670.211;    0.763;23591.217
358.758;26715.418;    1.033;23713.898
359.312;26718.463;    0.956;23744.121
359.866;26761.482;    0.922;23830.150
360.420;26756.928;    0.863;23919.086
360.974;26707.154;    1.160;24024.520
361.529;26596.393;    1.667;24066.256
362.083;26459.844;    1.714;24015.072
362.637;26222.791;    1.454;23843.332
363.191;25971.049;    1.277;23686.980
363.745;25675.025;    1.239;23574.730
364.299;25368.305;    1.540;23275.020
364.854;25108.957;    1.793;23004.582
365.408;24900.490;    1.672;22832.361
365.962;24750.719;    1.867;22694.938
366.516;24604.088;    1.912;22598.512
367.070;24480.857;    2.243;22514.027
367.624;24362.555;    2.447;22414.686
368.178;24311.598;    2.469;22382.342
368.733;24128.793;    2.214;22190.098
369.287;23921.123;    2.070;21957.773
369.841;23630.146;    2.169;21666.898
370.395;23356.959;    2.696;21434.756
370.949;23056.635;    2.530;21176.719
371.503;22733.805;    2.272;20857.873
372.057;22413.012;    2.347;20664.771
372.611;22149.607;    2.583;20616.932
373.165;21871.813;    2.980;20522.125
373.719;21660.604;    2.860;20495.113
374.273;21480.104;    2.349;20506.424
374.827;21397.932;    2.120;20575.273
375.381;21296.709;    2.134;20700.756
375.935;21195.477;    2.203;20870.318
376.489;21200.531;    2.386;21010.650
377.043;21225.324;    2.034;21245.135
377.597;21219.908;    1.577;21402.420
378.151;21241.221;    1.196;21493.182
378.705;21195.188;    1.479;21569.070
379.259;21165.236;    1.754;21522.289
379.813;21158.248;    1.423;21474.793
380.367;21117.031;    0.873;21484.975
380.921;21094.404;    0.797;21414.805
381.475;21076.254;    1.229;21378.598
382.029;21004.184;    1.902;21284.203
382.583;20964.238;    1.850;21271.482
383.137;20913.689;    1.359;21301.518
383.691;20832.980;    1.177;21300.807
384.245;20724.904;    1.234;21209.238
384.799;20589.633;    1.590;21174.924
385.353;20402.711;    1.592;21108.598
385.907;20246.607;    1.316;21192.297
386.461;20054.623;    1.083;21215.785
387.015;19876.291;    1.360;21203.338
387.569;19666.795;    1.889;21174.619
388.122;19423.930;    2.104;21097.770
388.676;19165.160;    1.903;21012.865
389.230;18954.912;    1.553;20967.229
389.784;18774.609;    1.410;20923.844
390.338;18631.762;    1.933;20870.760
390.892;18475.244;    1.982;20801.979
391.446;18383.463;    1.653;20746.834
391.999;18377.746;    1.459;20785.510
392.553;18441.621;    1.220;20842.127
393.107;18581.020;    1.697;20918.428
393.661;18731.084;    2.186;20928.527
394.215;18835.314;    2.016;20849.471
394.768;19002.000;    1.859;20884.371
395.322;19224.285;    1.867;20896.906
395.876;19438.986;    2.114;20921.127
396.430;19651.084;    2.769;20898.637
396.984;19780.594;    2.666;20817.242
397.537;19899.518;    2.269;20688.838
398.091;20074.719;    1.972;20699.154
398.645;20235.895;    2.234;20627.068
399.198;20292.082;    2.689;20504.336
399.752;20307.369;    2.704;20371.180
400.306;20289.174;    2.034;20250.672
400.860;20277.875;    1.823;20129.586
401.413;20247.865;    1.749;20069.705
401.967;20229.236;    2.179;19988.576
402.521;20179.477;    2.394;19907.193
403.074;20144.486;    2.083;19895.150
403.628;20119.744;    1.956;19857.600
404.182;20074.242;    1.919;19800.021
404.735;19990.516;    2.024;19732.807
405.289;19910.676;    2.382;19662.846
405.843;19809.529;    2.070;19524.451
406.396;19693.178;    1.782;19413.264
406.950;19574.893;    1.594;19221.857
407.503;19453.385;    1.399;18984.822
408.057;19306.330;    1.927;18753.191
408.611;19200.871;    1.907;18601.270
409.164;19141.189;    1.660;18458.930
409.718;19072.295;    1.399;18288.682
410.271;19011.496;    1.146;18133.148
410.825;18952.924;    1.410;18012.455
411.378;18893.469;    1.899;17928.895
411.932;18879.996;    1.537;17856.725
412.485;18884.502;    1.200;17696.875
413.039;18855.242;    1.014;17527.594
413.592;18832.346;    1.517;17508.240
414.146;18786.863;    2.139;17459.979
414.699;18733.779;    2.102;17396.783
415.253;18650.570;    1.862;17302.285
415.806;18581.410;    1.943;17208.291
416.360;18482.857;    2.102;17176.025
416.913;18342.893;    2.394;17166.963
417.466;18238.314;    2.573;17054.414
418.020;18210.178;    2.026;17014.334
418.573;18222.021;    1.532;17029.051
419.127;18334.117;    1.297;17176.988
419.680;18521.637;    1.624;17421.408
420.233;18738.635;    1.959;17641.104
420.787;18997.988;    1.922;17828.533
421.340;19220.176;    1.173;18077.789
421.894;19386.262;    1.093;18257.363
422.447;19528.209;    1.720;18406.648
423.000;19561.701;    2.184;18408.650
423.553;19484.707;    1.816;18379.383
424.107;19369.164;    1.613;18282.965
424.660;19186.422;    1.514;18085.246
425.213;18926.957;    1.934;17834.660
425.767;18686.297;    2.327;17649.459
426.320;18449.156;    2.252;17452.555
426.873;18183.244;    1.960;17170.824
427.426;17969.799;    1.932;16950.828
427.980;17806.285;    2.239;16857.219
428.533;17601.068;    2.722;16754.145
429.086;17399.752;    2.900;16615.451
429.639;17188.563;    2.762;16493.891
430.192;16933.096;    2.344;16340.891
430.746;16695.650;    2.006;16243.344
431.299;16406.518;    2.322;16024.472
431.852;16062.781;    2.293;15833.229
432.405;15781.678;    1.854;15705.715
432.958;15532.886;    1.516;15577.941
433.511;15307.362;    1.394;15405.151
434.064;15140.749;    1.970;15264.161
434.618;15037.839;    2.657;15210.028
435.171;14974.740;    2.524;15236.144
435.724;14942.669;    2.299;15147.426
436.277;14971.938;    2.116;15147.960
436.830;15049.584;    2.199;15154.341
437.383;15124.877;    2.389;15153.959
437.936;15235.945;    2.160;15213.801
438.489;15391.034;    1.732;15315.050
439.042;15591.133;    1.554;15404.146
439.595;15786.488;    1.406;15457.778
440.148;16018.114;    2.030;15557.823
440.701;16210.787;    2.400;15696.485
441.254;16388.740;    2.054;15775.416
441.807;16530.025;    1.649;15859.172
442.360;16639.820;    1.599;15981.597
442.913;16752.887;    1.869;16110.760
443.466;16862.057;    2.222;16298.816
444.018;16935.863;    1.820;16424.895
444.571;17068.076;    1.292;16585.398
445.124;17281.605;    1.276;16878.648
445.677;17614.922;    1.923;17229.840
446.230;18005.357;    2.504;17594.146
446.783;18486.906;    2.380;18064.014
447.336;19127.934;    2.113;18674.588
447.888;19861.775;    1.829;19301.225
448.441;20720.984;    1.942;20007.875
448.994;21655.930;    2.613;20734.004
449.547;22601.689;    2.213;21495.510
450.099;23576.965;    1.696;22254.613
450.652;24495.709;    1.496;22895.506
451.205;25332.875;    1.327;23460.619
451.758;26167.236;    2.059;24134.697
452.310;26822.795;    2.246;24729.506
452.863;27347.404;    1.922;25201.469
453.416;27727.791;    1.686;25500.367
453.968;28042.139;    1.369;25802.340
454.521;28273.584;    1.574;26090.832
455.074;28505.098;    2.090;26478.313
455.626;28635.506;    1.527;26716.381
456.179;28817.682;    1.156;26966.133
456.732;29049.055;    0.914;27342.787
457.284;29346.859;    1.274;27745.297
457.837;29706.336;    1.703;28049.557
458.389;30109.883;    1.747;28410.693
458.942;30498.742;    1.820;28558.881
459.494;30935.156;    1.866;28850.662
460.047;31403.070;    1.937;29184.119
460.599;31871.648;    2.434;29409.664
461.152;32294.240;    2.716;29662.150
461.704;32631.709;    2.786;29898.029
462.257;32935.324;    2.439;30135.412
462.809;33220.457;    1.800;30426.805
463.362;33456.000;    2.139;30624.643
463.914;33623.090;    2.703;30758.453
464.467;33697.707;    2.336;30871.873
465.019;33790.594;    1.807;30990.223
465.571;33816.281;    1.520;31090.037
466.124;33869.238;    1.813;31254.561
466.676;33853.703;    2.386;31373.615
467.228;33804.328;    2.237;31392.443
467.781;33731.043;    1.743;31415.758
468.333;33694.855;    1.543;31539.332
468.885;33616.344;    1.457;31655.814
469.438;33537.324;    1.712;31748.795
469.990;33467.277;    1.772;31751.547
470.542;33451.664;    1.347;31918.857
471.095;33456.938;    1.120;32155.582
471.647;33508.785;    1.322;32421.803
472.199;33543.941;    1.853;32546.111
472.751;33639.344;    2.572;32718.479
473.303;33796.863;    2.549;33041.320
473.856;33988.813;    2.516;33350.652
474.408;34151.445;    2.353;33585.246
474.960;34376.805;    2.633;33910.680
475.512;34622.410;    2.804;34154.949
476.064;34939.508;    2.573;34539.535
476.616;35275.152;    2.134;34967.367
477.168;35646.266;    1.953;35302.965
477.720;35987.215;    2.009;35659.094
478.272;36408.203;    2.733;35952.043
478.824;36762.605;    2.703;36127.410
479.376;37066.359;    2.282;36288.531
479.928;37283.754;    1.819;36305.574
480.480;37421.945;    1.867;36193.648
481.032;37495.098;    2.503;36139.602
481.584;37484.078;    2.677;35989.031
482.136;37389.270;    2.369;35870.645
482.688;37237.242;    1.929;35665.895
483.240;37129.195;    2.156;35556.148
483.792;37004.957;    2.893;35552.098
484.344;36905.172;    2.843;35478.727
484.896;36834.227;    2.297;35413.402
485.448;36779.023;    1.614;35332.148
485.999;36768.023;    1.312;35335.699
486.551;36897.145;    2.014;35424.953
487.103;36988.629;    2.332;35449.473
487.655;37149.832;    2.017;35367.098
488.207;37316.816;    1.869;35367.191
488.758;37464.141;    1.843;35219.875
489.310;37659.098;    2.244;35051.664
489.862;37856.793;    2.786;34840.652
490.414;37918.652;    2.760;34534.398
490.965;37951.414;    2.762;34138.566
491.517;37840.637;    2.729;33744.191
492.069;37612.785;    2.702;33286.777
492.620;37262.215;    2.850;32785.492
493.172;36741.707;    3.092;32180.316
493.724;36044.230;    2.614;31491.195
494.275;35270.258;    2.122;30783.773
494.827;34417.836;    1.743;30114.309
495.378;33500.637;    2.044;29348.791
495.930;32546.924;    2.550;28638.299
496.481;31563.668;    2.702;27875.699
497.033;30634.424;    2.303;27266.074
497.584;29775.408;    2.249;26717.234
498.136;28974.355;    3.017;26180.563
498.687;28141.115;    3.606;25583.523
499.239;27359.086;    3.493;25109.701
499.790;26644.371;    3.153;24652.186
500.342;25977.418;    2.799;24273.920
500.893;25344.512;    3.027;23856.111
501.444;24731.326;    3.447;23441.369
501.996;24141.238;    2.983;23114.922
502.547;23629.504;    2.526;22823.727
503.098;23270.998;    3.136;22486.547
503.650;22848.059;    3.196;22118.588
504.201;22443.176;    3.617;21869.178
504.752;22029.135;    3.916;21635.783
505.303;21629.637;    3.617;21420.023
505.855;21205.990;    3.219;21200.555
506.406;20801.430;    2.917;20947.488
506.957;20300.373;    2.223;20790.715
507.508;19885.883;    2.282;20601.246
508.060;19452.080;    2.087;20310.139
508.611;19000.047;    1.549;20053.422
509.162;18504.316;    1.139;19639.668
509.713;18050.293;    1.310;19256.934
510.264;17606.264;    1.830;18995.607
510.815;17206.740;    1.987;18766.771
511.366;16823.566;    1.833;18538.787
511.917;16510.484;    1.559;18376.559
512.468;16245.929;    1.662;18184.379
513.019;16059.365;    2.434;18075.482
513.570;15890.333;    2.582;17912.895
514.121;15730.377;    2.273;17685.191
514.672;15618.795;    1.946;17464.381
515.223;15561.513;    1.840;17317.418
515.774;15559.192;    2.246;17190.230
516.325;15573.335;    2.597;17064.516
516.876;15602.527;    2.137;16972.088
517.427;15677.806;    1.897;16852.500
517.977;15818.217;    1.684;16829.553
518.528;15957.853;    1.913;16766.789
519.079;16098.381;    2.636;16643.695
519.630;16228.421;    2.637;16517.559
520.181;16390.195;    2.292;16393.189
520.731;16587.479;    2.093;16230.644
521.282;16768.557;    2.262;16145.105
521.833;16929.982;    2.833;15953.990
522.384;17082.313;    3.003;15736.516
522.934;17207.396;    2.524;15565.753
523.485;17299.418;    2.183;15287.285
524.036;17393.842;    2.237;15035.617
524.586;17454.576;    2.803;14812.778
525.137;17472.076;    2.873;14528.730
525.687;17495.932;    2.540;14334.950
526.238;17515.574;    1.984;14182.572
526.788;17511.402;    1.686;13979.543
527.339;17536.480;    1.906;13912.451
527.889;17525.924;    2.084;13840.368
528.440;17478.961;    1.917;13741.925
528.990;17475.494;    1.562;13694.818
529.541;17456.063;    1.103;13649.667
530.091;17448.150;    1.544;13573.315
530.642;17459.229;    1.986;13536.518
531.192;17437.064;    1.922;13433.861
531.742;17435.107;    1.774;13329.195
532.293;17445.941;    1.506;13240.494
532.843;17465.723;    1.989;13155.667
533.393;17499.539;    3.007;13067.846
533.944;17478.307;    3.190;12937.999
534.494;17446.764;    2.904;12841.794
535.044;17452.414;    2.793;12827.269
535.594;17408.920;    2.776;12724.246
536.145;17387.844;    3.426;12705.307
536.695;17266.326;    3.626;12650.707
537.245;17086.541;    3.290;12536.481
537.795;16860.574;    2.870;12405.452
538.345;16595.498;    2.602;12205.625
538.895;16284.356;    2.696;11973.585
539.445;16023.946;    3.359;11850.345
539.995;15708.881;    3.229;11644.610
540.546;15412.208;    2.790;11454.025
541.096;15125.535;    2.564;11253.143
541.646;14922.199;    2.876;11160.063
542.196;14735.739;    3.986;11117.994
542.745;14558.130;    4.383;10992.626
543.295;14359.426;    3.679;10818.802
543.845;14205.370;    3.020;10664.616
544.395;14123.169;    3.157;10537.937
544.945;14057.543;    3.542;10437.008
545.495;14001.130;    3.429;10312.914
546.045;13997.857;    2.642;10157.087
546.595;14100.083;    2.114;10132.882
547.144;14206.225;    1.857;10129.313
547.694;14336.044;    2.146;10071.276
548.244;14595.052;    2.586;10157.261
548.794;14862.081;    2.499;10213.468
549.343;15137.806;    2.292;10254.829
549.893;15456.521;    2.319;10309.021
550.443;15712.630;    2.772;10297.742
550.992;16025.107;    3.576;10341.335
551.542;16286.619;    3.669;10400.935
552.092;16377.869;    2.873;10295.830
552.641;16448.471;    2.409;10220.709
553.191;16443.170;    2.432;10088.492
553.740;16323.208;    2.596; 9981.619
554.290;16152.713;    2.409; 9879.782
554.839;15883.418;    1.797; 9732.347
555.389;15582.521;    1.489; 9579.819
555.938;15291.297;    1.624; 9448.642
556.488;15031.745;    2.280; 9380.240
557.037;14770.925;    2.792; 9306.070
557.586;14522.827;    2.614; 9193.501
558.136;14303.097;    2.304; 9074.878
558.685;14127.952;    2.067; 8978.863
559.235;14024.113;    2.554; 8970.063
559.784;13902.276;    2.873; 8935.447
560.333;13740.141;    2.320; 8842.257
560.882;13616.563;    1.557; 8798.376
561.432;13568.193;    2.362; 8811.530
561.981;13493.778;    3.004; 8832.772
562.530;13401.560;    3.846; 8854.897
563.079;13274.427;    3.802; 8845.270
563.628;13202.358;    3.680; 8890.656
564.177;13120.253;    3.587; 8926.356
564.727;13018.943;    3.702; 8930.638
565.276;12882.215;    3.030; 8935.100
565.825;12765.668;    2.650; 8923.014
566.374;12668.599;    2.376; 8880.985
566.923;12585.254;    1.913; 8842.500
567.472;12471.296;    1.547; 8767.553
568.021;12400.010;    1.879; 8729.559
568.570;12352.883;    2.146; 8743.938
569.118;12298.550;    1.980; 8718.981
569.667;12270.325;    1.466; 8718.521
570.216;12236.828;    1.053; 8738.259
570.765;12218.068;    1.536; 8729.440
571.314;12190.661;    1.957; 8677.952
571.863;12156.784;    1.730; 8637.989
572.411;12141.348;    1.516; 8576.199
572.960;12172.510;    1.499; 8565.977
573.509;12219.121;    2.052; 8576.002
574.058;12274.710;    2.622; 8564.113
574.606;12321.390;    2.579; 8566.061
575.155;12374.599;    2.123; 8557.312
575.704;12458.666;    2.007; 8559.807
576.252;12576.940;    2.043; 8606.314
576.801;12654.784;    2.240; 8616.514
577.349;12753.957;    2.630; 8592.634
577.898;12878.215;    2.533; 8606.127
578.447;12992.206;    2.204; 8612.758
578.995;13163.782;    2.262; 8671.027
579.544;13329.402;    2.560; 8692.212
580.092;13462.446;    2.830; 8705.449
580.640;13607.961;    2.753; 8701.837
581.189;13742.364;    2.173; 8714.320
581.737;13882.127;    1.720; 8741.893
582.286;14045.591;    2.182; 8766.525
582.834;14197.440;    2.827; 8813.563
583.382;14342.473;    2.799; 8908.095
583.930;14500.538;    2.554; 8984.256
584.479;14676.305;    2.374; 9092.036
585.027;14832.093;    2.482; 9187.023
585.575;14996.599;    2.706; 9277.856
586.123;15191.691;    2.640; 9419.933
586.671;15391.306;    2.320; 9590.307
587.220;15601.493;    2.210; 9733.620
587.768;15780.229;    1.994; 9897.634
588.316;15992.982;    2.263;10096.534
588.864;16204.141;    2.514;10316.001
589.412;16396.203;    2.584;10561.078
589.960;16540.912;    2.170;10715.612
590.508;16663.855;    2.039;10852.594
591.056;16818.631;    2.652;11023.095
591.604;17011.580;    3.446;11256.100
592.152;17111.711;    3.357;11426.526
592.700;17204.037;    2.952;11630.218
593.247;17301.635;    2.499;11816.598
593.795;17403.469;    2.757;12038.872
594.343;17485.414;    3.304;12177.236
594.891;17523.293;    3.064;12294.479
595.439;17469.588;    2.414;12302.669
595.986;17468.186;    2.230;12362.772
596.534;17466.014;    2.402;12379.223
597.082;17420.541;    3.080;12393.918
597.629;17381.494;    3.019;12443.362
598.177;17328.002;    2.442;12502.169
598.725;17255.465;    1.872;12569.535
599.272;17246.986;    1.832;12688.868
599.820;17202.746;    2.059;12764.727
600.367;17147.441;    2.407;12818.869
600.915;17104.246;    2.230;12846.904
601.462;17071.891;    2.030;12878.114
602.010;17061.229;    2.004;12918.974
602.557;17051.049;    2.186;12958.457
603.105;17038.219;    2.450;12968.645
603.652;17038.424;    2.244;12953.086
604.199;17066.305;    1.716;12991.679
604.747;17141.473;    1.426;13065.749
605.294;17209.570;    1.613;13149.854
605.841;17269.373;    2.009;13196.427
606.388;17345.064;    2.289;13229.990
606.936;17472.033;    2.389;13281.705
607.483;17633.494;    2.473;13366.182
608.030;17816.279;    2.593;13450.556
608.577;17980.750;    3.089;13503.925
609.124;18167.318;    3.414;13530.827
609.671;18371.035;    3.263;13531.775
610.219;18645.213;    3.124;13586.985
610.766;18928.787;    3.076;13652.589
611.313;19184.746;    3.359;13696.247
611.860;19422.332;    3.696;13691.382
612.406;19690.820;    3.402;13744.073
612.953;19984.488;    3.094;13803.055
613.500;20312.613;    2.687;13963.831
614.047;20597.367;    2.676;14088.208
614.594;20824.945;    2.943;14153.533
615.141;21097.633;    2.934;14289.390
615.688;21378.553;    2.662;14392.395
616.234;21628.379;    2.352;14383.341
616.781;21837.334;    2.427;14404.511
617.328;22027.326;    3.026;14463.528
617.875;22177.645;    3.217;14430.008
618.421;22345.959;    2.823;14425.002
618.968;22473.213;    2.467;14403.573
619.515;22591.486;    2.446;14453.614
620.061;22634.768;    2.966;14456.558
620.608;22641.932;    3.190;14439.548
621.154;22674.098;    3.072;14490.834
621.701;22700.898;    2.693;14596.449
622.247;22665.604;    2.407;14643.035
622.794;22595.162;    2.492;14610.465
623.340;22472.254;    2.562;14561.553
623.886;22396.148;    2.234;14674.229
624.433;22288.830;    1.856;14771.703
624.979;22133.648;    1.497;14855.765
625.525;21927.965;    1.456;14879.796
626.072;21748.914;    1.993;15013.922
626.618;21549.676;    2.237;15086.968
627.164;21383.539;    2.179;15216.661
627.710;21164.135;    1.949;15272.576
628.256;20956.283;    1.902;15347.232
628.803;20702.754;    2.222;15288.673
629.349;20500.113;    2.703;15327.968
629.895;20275.189;    2.340;15302.955
630.441;20058.336;    2.077;15384.949
630.987;19804.436;    1.966;15428.438
631.533;19586.154;    2.394;15510.812
632.079;19351.680;    2.679;15478.526
632.625;19139.410;    2.392;15503.278
633.171;18936.271;    1.999;15515.245
633.717;18753.758;    1.983;15583.961
634.262;18575.742;    1.926;15637.299
634.808;18401.686;    2.134;15604.214
635.354;18263.957;    1.967;15582.511
635.900;18165.820;    1.794;15660.251
636.446;18090.781;    1.794;15695.133
636.991;18006.139;    1.982;15665.549
637.537;17924.805;    2.374;15658.527
638.083;17863.855;    2.630;15671.771
638.628;17799.453;    2.392;15669.538
639.174;17772.230;    2.177;15634.639
639.719;17743.797;    2.007;15602.901
640.265;17733.648;    2.457;15666.940
640.810;17746.039;    2.746;15761.846
641.356;17775.389;    2.499;15785.044
641.901;17825.787;    2.143;15793.367
642.447;17950.467;    2.082;15886.419
642.992;18029.455;    2.392;15948.362
643.538;18207.605;    3.356;16007.633
644.083;18365.307;    3.243;16007.868
644.628;18520.572;    2.600;16026.446
645.173;18700.621;    2.316;16060.482
645.719;18876.795;    2.584;16029.560
646.264;19060.379;    3.014;16035.871
646.809;19278.047;    3.140;16053.347
647.354;19448.131;    2.349;16064.777
647.899;19663.127;    1.969;16042.783
648.444;19938.967;    1.912;15987.191
648.990;20203.383;    2.267;15911.073
649.535;20498.123;    2.157;15936.846
650.080;20811.633;    1.782;15929.212
650.625;21143.336;    1.302;15901.366
651.169;21554.100;    1.397;15894.328
651.714;21976.758;    1.806;15915.406
652.259;22411.156;    2.502;16022.624
652.804;22849.096;    2.607;16059.087
653.349;23290.795;    2.584;16004.739
653.894;23753.469;    2.593;16000.641
654.438;24216.500;    3.023;16002.390
654.983;24656.051;    3.520;15978.784
655.528;25060.158;    3.599;15956.043
656.073;25425.775;    2.980;15884.135
656.617;25808.246;    2.600;15902.928
657.162;26124.424;    2.557;15918.126
657.706;26346.012;    2.927;15854.354
658.251;26522.598;    2.997;15830.059
658.796;26674.920;    2.983;15816.769
659.340;26784.289;    2.740;15742.755
659.884;26865.594;    2.739;15715.711
660.429;26994.426;    3.174;15745.523
660.973;27049.688;    3.514;15749.963
661.518;27106.002;    3.137;15801.950
662.062;27156.066;    2.634;15809.180
662.606;27171.969;    1.940;15850.870
663.151;27179.789;    2.006;15947.389
663.695;27226.479;    2.777;16038.801
664.239;27077.322;    2.532;15946.139
664.783;26979.076;    2.046;15888.099
665.327;26885.775;    1.842;15830.063
665.871;26736.502;    1.917;15788.773
666.416;26509.850;    2.292;15663.833
666.960;26313.500;    2.416;15634.777
667.504;26012.484;    1.692;15510.952
668.048;25780.895;    1.454;15518.514
668.592;25560.188;    1.650;15600.340
669.135;25364.809;    2.409;15620.888
669.679;25131.271;    2.786;15632.665
670.223;24898.350;    2.417;15703.724
670.767;24646.498;    2.076;15668.647
671.311;24407.566;    2.050;15688.210
671.855;24189.188;    2.456;15709.610
672.398;23990.869;    2.780;15689.408
672.942;23700.156;    2.412;15629.038
673.486;23480.648;    2.242;15575.172
674.029;23309.518;    2.190;15575.683
674.573;23139.900;    2.436;15606.302
675.117;22971.596;    2.932;15572.540
675.660;22782.371;    2.576;15512.987
676.204;22591.484;    2.172;15447.049
676.747;22490.924;    1.907;15501.265
677.291;22399.521;    1.782;15547.051
677.834;22280.521;    2.164;15502.416
678.377;22197.498;    2.104;15476.438
678.921;22134.623;    1.629;15443.263
679.464;22132.605;    1.402;15475.839
680.007;22150.125;    1.356;15534.808
680.551;22135.328;    1.544;15511.611
681.094;22170.623;    1.923;15564.133
681.637;22235.543;    1.787;15591.499
682.180;22283.016;    1.574;15584.659
682.723;22376.082;    1.526;15632.621
683.266;22454.881;    1.853;15626.680
683.809;22510.795;    2.160;15535.618
684.352;22618.238;    2.846;15460.701
684.895;22724.023;    2.543;15372.903
685.438;22827.152;    2.252;15363.421
685.981;22924.598;    2.463;15345.217
686.524;23024.943;    3.100;15310.160
687.067;23130.414;    3.309;15293.864
687.610;23269.639;    3.166;15416.497
688.153;23366.123;    2.349;15483.719
688.695;23396.840;    2.277;15442.604
689.238;23468.846;    2.782;15413.378
689.781;23536.662;    2.836;15336.210
690.324;23578.695;    2.353;15302.956
690.866;23550.742;    1.977;15226.162
691.409;23529.135;    1.613;15157.224
691.951;23499.135;    1.826;15161.359
692.494;23471.734;    2.156;15187.062
693.036;23361.020;    1.789;15111.805
693.579;23280.131;    1.513;15160.040
694.121;23158.498;    1.619;15132.405
694.664;23072.730;    2.032;15159.161
695.206;22883.637;    2.602;15062.693
695.748;22703.055;    2.546;15012.453
696.291;22504.090;    2.267;15024.275
696.833;22262.971;    2.036;15064.395
697.375;21952.641;    2.289;15062.055
697.917;21576.320;    2.590;15077.546
698.459;21137.268;    2.312;15037.439
699.002;20702.342;    1.937;14989.411
699.544;20232.834;    1.872;14960.681
700.086;19775.279;    1.957;14965.402
700.628;19275.512;    2.467;14900.413
701.170;18744.498;    2.449;14795.727
701.712;18243.893;    2.190;14744.772
702.253;17733.848;    1.957;14682.530
702.795;17244.674;    1.899;14711.564
703.337;16721.195;    2.016;14634.118
703.879;16191.651;    2.284;14582.423
704.421;15712.096;    2.186;14617.363
704.963;15245.046;    1.830;14650.117
705.504;14787.363;    1.487;14626.514
706.046;14356.354;    2.003;14632.384
706.588;13938.683;    2.572;14612.898
707.129;13499.692;    2.750;14565.570
707.671;13058.938;    2.519;14476.845
708.212;12653.124;    2.182;14470.286
708.754;12243.403;    2.380;14468.057
709.295;11815.363;    2.869;14392.811
709.837;11420.596;    2.890;14401.028
710.378;11052.649;    2.730;14446.511
710.919;10707.046;    2.319;14481.081
711.461;10356.853;    2.236;14446.314
712.002;10018.126;    2.807;14375.581
712.543; 9710.254;    2.989;14315.593
713.084; 9463.734;    2.833;14346.548
713.626; 9212.865;    2.524;14316.675
714.167; 8937.573;    2.072;14243.851
714.708; 8701.402;    2.399;14267.479
715.249; 8485.676;    2.822;14278.298
715.790; 8265.393;    2.367;14261.066
716.331; 8057.684;    2.172;14187.708
716.872; 7834.989;    1.972;14144.852
717.413; 7647.463;    2.187;14123.713
717.954; 7467.658;    2.839;14083.258
718.495; 7279.182;    2.909;13999.944
719.035; 7101.870;    2.410;13954.055
719.576; 6939.122;    2.276;13874.045
720.117; 6882.413;    3.299;13899.501
720.658; 6776.411;    3.954;13882.108
721.198; 6650.578;    3.967;13863.268
721.739; 6544.079;    3.656;13814.367
722.280; 6447.152;    3.264;13754.547
722.820; 6351.727;    3.363;13715.160
723.361; 6270.907;    3.679;13716.846
723.901; 6117.451;    3.009;13621.667
724.442; 6028.946;    2.462;13566.585
724.982; 5955.396;    2.070;13526.836
725.522; 5867.436;    1.613;13504.456
726.063; 5812.389;    1.980;13495.322
726.603; 5777.527;    2.486;13505.397
727.143; 5727.378;    2.619;13466.742
727.684; 5662.385;    2.284;13472.352
728.224; 5605.574;    1.947;13488.968
728.764; 5546.772;    1.983;13426.033
729.304; 5523.070;    2.676;13414.030
729.844; 5482.917;    2.450;13405.615
730.384; 5468.459;    2.560;13359.819
730.924; 5432.021;    2.257;13288.854
731.464; 5406.703;    2.187;13297.818
732.004; 5402.592;    2.826;13338.804
732.544; 5391.205;    3.259;13393.293
733.084; 5400.404;    3.312;13361.595
733.624; 5410.985;    3.339;13396.611
734.164; 5397.060;    2.569;13525.811
734.703; 5422.255;    2.937;13649.519
735.243; 5451.525;    3.386;13757.006
735.783; 5466.737;    3.172;13814.979
736.322; 5505.318;    2.656;13785.030
736.862; 5522.766;    2.214;13828.038
737.402; 5561.936;    2.287;13863.659
737.941; 5600.681;    2.702;13780.377
738.481; 5661.695;    2.606;13855.856
739.020; 5728.938;    2.306;13816.520
739.559; 5814.597;    2.119;13777.062
740.099; 5906.682;    2.436;13913.428
740.638; 6018.984;    3.017;14062.390
741.177; 6143.057;    3.177;14154.896
741.717; 6248.663;    2.739;14267.431
742.256; 6373.540;    2.564;14320.163
742.795; 6496.804;    2.583;14490.283
743.334; 6645.458;    3.227;14693.954
743.873; 6785.269;    3.609;14814.392
744.413; 6931.847;    3.064;14954.564
744.952; 7044.154;    2.629;15087.706
745.491; 7185.146;    2.609;15247.870
746.030; 7300.119;    2.744;15333.473
746.568; 7413.285;    3.032;15421.932
747.107; 7481.565;    2.457;15425.282
747.646; 7559.685;    1.857;15461.001
748.185; 7633.833;    1.886;15424.616
748.724; 7707.761;    2.136;15409.543
749.263; 7767.365;    2.494;15422.843
749.801; 7822.466;    2.523;15438.714
750.340; 7881.585;    2.072;15445.324
750.878; 7931.354;    1.974;15470.133
751.417; 7960.028;    1.899;15409.932
751.956; 7974.365;    2.144;15469.081
752.494; 8007.279;    2.442;15518.773
753.033; 8019.637;    2.486;15436.924
753.571; 8035.620;    2.482;15434.565
754.109; 8014.883;    2.423;15360.589
754.648; 8002.731;    2.797;15347.497
755.186; 7985.716;    3.433;15440.093
755.724; 7920.460;    3.326;15381.480
756.262; 7872.465;    3.226;15310.285
756.801; 7806.668;    2.814;15331.999
757.339; 7691.442;    2.713;15356.514
757.877; 7591.721;    3.390;15353.514
758.415; 7458.279;    3.419;15248.125
758.953; 7303.393;    3.107;15072.784
759.491; 7164.507;    2.869;14999.804
760.029; 6979.612;    2.734;14971.495
760.567; 6822.620;    3.140;14942.096
761.105; 6659.177;    3.253;14756.183
761.643; 6478.039;    2.600;14588.907
762.180; 6309.810;    2.230;14513.956
762.718; 6177.541;    2.192;14470.747
763.256; 6032.523;    2.620;14446.393
763.793; 5876.993;    2.764;14369.944
764.331; 5706.698;    2.552;14255.685
764.869; 5560.849;    2.227;14284.699
765.406; 5414.565;    2.396;14268.366
765.944; 5273.484;    2.787;14263.428
766.481; 5106.942;    3.133;14239.317
767.019; 4959.524;    3.004;14127.480
767.556; 4822.911;    2.776;14039.040
768.093; 4696.439;    2.680;14020.798
768.631; 4561.367;    2.874;13908.893
769.168; 4434.551;    3.304;13795.049
769.705; 4305.253;    3.347;13691.870
770.242; 4199.920;    3.116;13649.803
770.780; 4081.644;    2.463;13592.196
771.317; 3980.437;    2.484;13550.262
771.854; 3877.600;    2.893;13471.947
772.391; 3775.575;    3.210;13412.892
772.928; 3692.140;    3.043;13429.147
773.465; 3600.684;    2.440;13398.306
774.002; 3496.385;    2.127;13309.387
774.538; 3406.309;    2.679;13241.401
775.075; 3311.484;    3.146;13118.635
775.612; 3231.982;    3.192;13056.369
776.149; 3178.060;    3.016;13046.695
776.685; 3113.187;    2.640;13010.475
777.222; 3061.555;    3.077;12964.621
777.759; 3005.257;    3.657;12964.174
778.295; 2941.662;    3.682;12902.590
778.832; 2879.186;    3.176;12908.753
779.368; 2862.867;    3.190;12887.800
779.905; 2803.358;    3.086;12854.366
780.441; 2731.543;    3.349;12800.696
780.978; 2663.491;    3.370;12710.366
781.514; 2603.741;    2.994;12596.820
782.050; 2556.623;    2.693;12558.238
782.586; 2514.078;    2.680;12560.412
783.123; 2415.533;    2.544;12485.188
783.659; 2359.521;    2.716;12394.135
784.195; 2314.458;    2.346;12347.384
784.731; 2267.128;    1.792;12288.531
785.267; 2232.103;    1.623;12246.120
785.803; 2193.938;    1.794;12148.918
786.339; 2167.475;    2.076;12033.048
786.875; 2143.082;    1.864;11977.777
787.411; 2139.488;    2.012;11969.930
787.947; 2123.366;    2.074;11939.280
788.482; 2115.793;    2.592;11964.332
789.018; 2089.711;    2.927;11908.042
789.554; 2073.938;    2.974;11907.400
790.090; 2067.766;    2.732;11881.421
790.625; 2055.984;    2.637;11854.802
791.161; 2013.070;    2.250;11783.131
791.696; 2001.334;    2.763;11725.830
792.232; 1987.156;    2.844;11685.956
792.767; 1984.063;    2.777;11690.128
793.303; 1972.081;    2.587;11676.556
793.838; 1949.956;    2.566;11632.534
794.373; 1934.769;    2.773;11560.866
794.909; 1919.244;    2.949;11462.723
795.444; 1898.495;    2.620;11410.744
795.979; 1880.404;    2.289;11314.146
796.514; 1866.801;    1.922;11259.623
797.049; 1863.296;    2.302;11258.978
797.584; 1846.387;    2.630;11238.729
798.119; 1835.990;    2.614;11228.720
798.654; 1842.886;    2.384;11267.354
799.189; 1845.789;    2.320;11243.914
799.724; 1843.184;    2.323;11264.951
800.259; 1848.000;    2.847;11262.826
800.794; 1849.229;    2.907;11200.135
801.329; 1855.308;    2.604;11153.245
801.863; 1859.762;    2.257;11128.419
802.398; 1855.454;    2.324;11081.932
802.933; 1841.994;    2.422;10963.883
803.467; 1842.197;    2.709;10841.859
804.002; 1839.423;    2.387;10741.154
804.536; 1837.306;    1.782;10658.524
805.071; 1850.650;    1.464;10654.964
805.605; 1869.111;    1.962;10629.821
806.139; 1877.045;    2.163;10574.163
806.674; 1909.212;    2.193;10676.176
807.208; 1931.021;    1.947;10711.335
807.742; 1947.848;    1.717;10733.925
808.276; 1973.717;    2.420;10741.487
808.811; 1983.930;    3.082;10734.969
809.345; 1989.338;    3.136;10643.591
809.879; 2015.491;    3.137;10637.672
810.413; 2032.487;    3.059;10587.516
810.947; 2054.415;    3.507;10572.150
811.481; 2090.851;    4.410;10590.169
812.015; 2103.659;    4.270;10612.771
812.549; 2130.865;    3.960;10586.839
813.082; 2169.114;    3.502;10636.075
813.616; 2196.362;    3.253;10620.640
814.150; 2227.585;    3.612;10553.794
814.683; 2263.710;    3.577;10508.280
815.217; 2309.204;    2.820;10483.739
815.751; 2361.040;    2.350;10430.468
816.284; 2403.027;    2.123;10361.859
816.818; 2437.051;    2.576;10252.118
817.351; 2483.296;    2.716;10199.703
817.885; 2520.947;    2.203;10154.906
818.418; 2575.612;    1.812;10126.190
818.951; 2614.730;    1.853;10031.190
819.484; 2671.810;    2.207;10035.844
820.018; 2734.428;    2.510;10014.389
820.551; 2800.473;    2.330;10049.086
821.084; 2871.935;    2.089;10078.036
821.617; 2948.435;    1.786;10089.631
822.150; 3017.294;    1.807;10079.384
822.683; 3085.645;    2.023;10049.619
823.216; 3166.635;    2.194;10002.643
823.749; 3256.456;    2.112;10002.903
824.282; 3339.595;    1.657; 9980.746
824.815; 3448.575;    1.874; 9964.790
825.347; 3551.937;    2.742; 9976.763
825.880; 3658.069;    3.019; 9988.958
826.413; 3770.800;    2.927; 9991.990
826.945; 3871.105;    2.514;10004.600
827.478; 3994.051;    2.552;10010.774
828.011; 4110.897;    3.257; 9967.705
828.543; 4210.511;    3.567; 9964.650
829.076; 4316.328;    3.350; 9938.459
829.608; 4417.540;    2.852; 9883.190
830.140; 4528.945;    2.564; 9901.529
830.673; 4655.218;    2.910; 9853.842
831.205; 4759.999;    3.237; 9780.764
831.737; 4887.497;    2.789; 9791.182
832.269; 4986.176;    2.252; 9696.285
832.801; 5109.742;    1.946; 9624.224
833.333; 5219.257;    2.033; 9577.904
833.865; 5331.503;    2.453; 9547.805
834.397; 5442.938;    2.577; 9523.343
834.929; 5534.288;    2.152; 9487.538
835.461; 5605.082;    2.126; 9365.161
835.993; 5694.298;    1.952; 9320.995
836.525; 5768.355;    2.206; 9308.481
837.057; 5867.519;    2.433; 9301.330
837.588; 5953.653;    2.402; 9277.372
838.120; 6022.554;    1.904; 9287.247
838.652; 6086.498;    1.642; 9355.522
839.183; 6167.373;    1.687; 9499.963
839.715; 6224.238;    2.240; 9580.639
840.246; 6254.444;    2.349; 9587.818
840.778; 6260.751;    2.330; 9564.621
841.309; 6259.366;    2.190; 9532.572
841.840; 6233.714;    2.450; 9519.996
842.372; 6199.467;    3.030; 9483.938
842.903; 6141.219;    3.136; 9441.794
843.434; 6077.580;    2.817; 9357.458
843.965; 6020.070;    2.310; 9319.769
844.496; 5949.493;    2.152; 9343.974
845.028; 5895.074;    2.639; 9396.660
845.559; 5837.925;    2.982; 9448.116
846.089; 5758.190;    2.784; 9452.687
846.620; 5675.602;    2.610; 9469.329
847.151; 5608.225;    2.837; 9519.497
847.682; 5527.405;    3.353; 9538.660
848.213; 5425.198;    3.534; 9525.329
848.744; 5290.427;    3.037; 9454.759
849.274; 5156.598;    2.373; 9379.308
849.805; 5049.476;    2.110; 9345.937
850.336; 4946.099;    2.430; 9311.855
850.866; 4813.685;    2.506; 9258.625
851.397; 4689.436;    2.189; 9260.577
851.927; 4591.459;    2.016; 9276.317
852.457; 4488.680;    1.852; 9306.553
852.988; 4387.188;    2.086; 9343.456
853.518; 4285.778;    2.549; 9353.948
854.048; 4179.665;    2.479; 9359.599
854.578; 4091.875;    2.274; 9405.596
855.109; 4017.131;    2.157; 9455.482
855.639; 3935.824;    2.010; 9469.054
856.169; 3867.144;    2.692; 9465.776
856.699; 3791.445;    3.046; 9451.917
857.229; 3713.997;    2.664; 9472.702
857.759; 3641.982;    2.403; 9458.188
858.289; 3577.028;    2.152; 9485.961
858.818; 3521.240;    2.507; 9528.114
859.348; 3451.874;    3.049; 9546.704
859.878; 3367.433;    2.714; 9543.730
860.408; 3303.427;    2.349; 9536.490
860.937; 3237.312;    2.439; 9497.186
861.467; 3180.375;    2.607; 9544.058
861.996; 3116.200;    3.050; 9520.332
862.526; 3045.815;    3.059; 9454.146
863.055; 3006.489;    2.804; 9499.622
863.585; 2967.590;    2.524; 9562.398
864.114; 2918.495;    2.357; 9587.175
864.643; 2877.879;    2.579; 9636.829
865.172; 2833.595;    2.674; 9660.092
865.702; 2807.172;    2.556; 9710.460
866.231; 2763.097;    2.096; 9756.873
866.760; 2711.054;    1.799; 9743.839
867.289; 2679.165;    2.307; 9755.036
867.818; 2656.711;    2.893; 9798.701
868.347; 2626.542;    2.700; 9825.833
868.876; 2590.313;    2.447; 9763.459
869.404; 2546.473;    1.980; 9737.922
869.933; 2515.502;    2.170; 9749.092
870.462; 2487.460;    2.723; 9793.668
870.991; 2478.020;    2.579; 9825.379
871.519; 2458.955;    2.239; 9886.887
872.048; 2438.960;    1.832; 9926.965
872.576; 2428.057;    1.757;10010.485
873.105; 2417.814;    2.226;10093.502
873.633; 2417.486;    2.629;10152.345
874.162; 2407.237;    2.180;10161.448
874.690; 2372.044;    1.759;10158.586
875.218; 2352.536;    1.462;10201.747
875.747; 2359.287;    2.067;10279.081
876.275; 2357.326;    2.576;10329.214
876.803; 2357.470;    2.683;10383.697
877.331; 2335.071;    2.096;10420.604
877.859; 2327.426;    1.849;10509.329
878.387; 2323.115;    2.222;10576.276
878.915; 2327.931;    2.842;10608.576
879.443; 2309.868;    2.752;10629.683
879.971; 2297.970;    2.447;10692.274
880.499; 2295.188;    2.079;10719.518
881.026; 2302.705;    2.347;10744.923
881.554; 2310.517;    3.103;10802.524
882.082; 2309.760;    2.962;10885.666
882.609; 2297.210;    2.556;10909.366
883.137; 2334.824;    2.903;10963.422
883.664; 2355.427;    2.989;11019.947
884.192; 2350.897;    3.380;11062.679
884.719; 2358.541;    3.577;11131.102
885.247; 2362.128;    3.287;11120.031
885.774; 2371.865;    3.103;11084.284
886.301; 2377.085;    2.832;11082.367
886.828; 2354.035;    2.439;11090.191
887.355; 2349.915;    2.522;11124.687
887.883; 2354.978;    2.340;11175.243
888.410; 2347.079;    1.873;11167.918
888.937; 2350.940;    1.709;11204.269
889.463; 2368.530;    2.000;11296.452
889.990; 2392.426;    2.764;11394.532
890.517; 2413.040;    3.017;11431.953
891.044; 2429.275;    2.646;11448.239
891.571; 2453.738;    2.276;11519.228
892.097; 2478.781;    2.307;11606.510
892.624; 2512.092;    2.804;11679.054
893.151; 2528.106;    2.763;11676.534
893.677; 2539.607;    2.170;11641.063
894.204; 2552.077;    1.604;11712.869
894.730; 2573.280;    1.544;11743.628
895.256; 2599.661;    2.004;11750.920
895.783; 2635.152;    2.417;11841.229
896.309; 2647.806;    1.769;11876.500
896.835; 2677.203;    1.559;11977.813
897.361; 2708.998;    1.603;12099.589
897.887; 2740.990;    1.909;12146.932
898.413; 2789.500;    2.613;12315.799
898.940; 2815.145;    2.652;12404.012
899.465; 2844.806;    2.444;12498.476
899.991; 2880.313;    2.314;12629.896
900.517; 2918.455;    2.446;12771.473
901.043; 2995.135;    3.206;12896.053
901.569; 3063.714;    3.334;13125.071
902.094; 3147.549;    3.354;13310.450
902.620; 3222.342;    3.176;13481.510
903.146; 3295.570;    3.120;13618.001
903.671; 3395.923;    3.769;13806.183
904.197; 3496.754;    4.130;14011.966
904.722; 3554.708;    3.550;14206.348
905.247; 3617.979;    3.282;14293.041
905.773; 3712.393;    3.019;14464.986
906.298; 3812.559;    3.240;14709.578
906.823; 3912.043;    3.577;14982.038
907.349; 4026.594;    3.473;15265.006
907.874; 4158.546;    2.982;15511.556
908.399; 4311.326;    2.692;15835.110
908.924; 4483.678;    3.016;16200.273
909.449; 4601.054;    3.177;16508.785
909.974; 4768.346;    3.036;16923.283
910.498; 4952.497;    2.793;17328.609
911.023; 5135.865;    2.434;17761.566
911.548; 5336.959;    2.523;18187.576
912.073; 5577.195;    3.410;18667.494
912.597; 5815.548;    3.563;19198.959
913.122; 6087.280;    3.259;19742.561
913.646; 6359.731;    3.086;20224.523
914.171; 6642.638;    2.784;20722.605
914.695; 6926.138;    2.906;21222.521
915.220; 7218.331;    3.034;21806.916
915.744; 7491.844;    2.206;22301.039
916.268; 7814.634;    1.524;22873.074
916.792; 8181.214;    1.380;23530.238
917.317; 8557.226;    1.507;24224.422
917.841; 8967.825;    2.016;24937.467
918.365; 9415.517;    2.123;25646.908
918.889; 9892.771;    1.912;26364.502
919.413;10377.543;    1.887;27100.746
919.937;10848.263;    2.030;27777.152
920.460;11328.319;    2.297;28402.709
920.984;11875.080;    2.373;29150.492
921.508;12460.794;    2.309;29881.307
922.032;13050.520;    2.120;30680.703
922.555;13633.982;    2.004;31518.904
923.079;14263.141;    2.273;32388.623
923.602;14953.361;    2.616;33302.730
924.126;15650.822;    2.520;34195.930
924.649;16351.322;    2.530;34920.207
925.173;17048.568;    2.380;35716.066
925.696;17794.941;    2.843;36464.445
926.219;18567.412;    3.130;37299.285
926.742;19345.945;    2.983;38146.891
927.265;20135.238;    2.573;38976.273
927.788;20955.422;    2.239;39875.109
928.311;21778.615;    2.272;40773.555
928.834;22614.010;    2.582;41666.059
929.357;23436.037;    2.447;42550.793
929.880;24301.707;    2.117;43384.668
930.403;25228.088;    1.910;44289.578
930.926;26159.199;    2.197;45200.805
931.448;27031.859;    2.784;45881.578
931.971;27972.955;    3.134;46748.977
932.494;28918.145;    2.839;47677.344
933.016;29898.619;    2.637;48568.527
933.539;30845.965;    2.913;49428.512
934.061;31717.711;    3.514;50230.582
934.583;32549.031;    3.579;51015.633
935.106;33476.129;    3.426;51997.719
935.628;34234.695;    2.893;52761.930
936.150;35004.867;    2.750;53433.273
936.672;35718.961;    2.960;54131.781
937.194;36471.395;    3.810;54823.695
937.716;37218.320;    3.719;55589.617
938.238;37924.508;    3.602;56270.785
938.760;38592.449;    3.463;56925.250
939.282;39274.191;    3.720;57699.832
939.804;39852.824;    4.132;58443.074
940.326;40332.039;    3.876;59032.020
940.848;40751.855;    2.803;59697.023
941.369;41142.219;    2.282;60207.105
941.891;41526.184;    2.270;60739.371
942.412;41777.508;    2.580;61146.535
942.934;41994.539;    2.636;61415.410
943.455;42207.918;    2.512;61732.191
943.977;42410.293;    2.326;62112.648
944.498;42521.168;    2.294;62365.422
945.019;42602.160;    2.513;62637.707
945.540;42650.063;    2.769;62854.461
946.061;42652.012;    2.576;63095.852
946.583;42628.484;    2.217;63332.723
947.104;42456.273;    1.809;63457.359
947.625;42287.746;    2.222;63582.199
948.145;42101.520;    2.652;63622.527
948.666;41847.457;    2.642;63622.547
949.187;41538.375;    2.070;63622.547
949.708;41247.609;    1.747;63622.547
950.229;41012.578;    2.222;63622.547
950.749;40800.563;    2.880;63622.547
951.270;40493.695;    2.917;63622.547
951.790;40151.949;    2.654;63622.547
952.311;39766.648;    2.417;63622.547
952.831;39337.172;    2.617;63622.547
953.351;38893.180;    3.192;63622.547
953.872;38406.207;    3.172;63622.547
954.392;37921.367;    2.917;63622.547
954.912;37458.047;    2.380;63622.547
955.432;36935.195;    2.290;63622.547
955.952;36442.945;    2.739;63622.547
956.472;35972.516;    3.084;63622.547
956.992;35482.563;    2.762;63622.547
957.512;34921.359;    2.264;63622.547
958.032;34363.176;    1.833;63532.262
958.552;33869.047;    2.784;63504.820
959.071;33376.105;    3.216;63364.914
959.591;32910.223;    3.274;63263.574
960.111;32467.715;    2.850;63196.781
960.630;31989.729;    2.557;62986.195
961.150;31559.979;    2.799;62841.500
961.669;31148.768;    3.302;62742.633
962.189;30682.170;    2.752;62557.477
962.708;30281.645;    2.359;62371.625
963.227;29850.201;    1.872;62226.809
963.746;29379.234;    1.930;61942.617
964.266;28927.273;    2.306;61691.484
964.785;28490.996;    2.304;61331.680
965.304;28109.160;    2.217;61078.941
965.823;27730.221;    1.949;60635.340
966.341;27342.119;    1.766;60428.191
966.860;26985.055;    2.210;60120.004
967.379;26633.104;    2.429;59792.289
967.898;26259.773;    2.300;59497.418
968.417;25852.395;    2.090;59213.414
968.935;25421.654;    1.716;58832.531
969.454;25064.334;    1.984;58614.277
969.972;24735.975;    2.612;58243.492
970.491;24341.322;    2.547;57838.348
971.009;23938.672;    2.454;57435.824
971.527;23598.459;    2.204;57056.234
972.046;23294.092;    2.647;56576.109
972.564;22988.752;    3.236;56133.441
973.082;22678.426;    3.280;55759.000
973.600;22286.750;    2.760;55278.211
974.118;21987.539;    2.382;54927.426
974.636;21763.447;    2.372;54614.387
975.154;21548.633;    2.960;54394.617
975.672;21291.801;    2.902;54197.617
976.190;21061.297;    2.726;53941.109
976.707;20805.186;    2.676;53640.688
977.225;20588.898;    2.637;53398.617
977.743;20351.814;    3.109;53041.590
978.260;20086.209;    3.257;52707.586
978.778;19839.262;    2.950;52226.055
979.295;19636.418;    2.624;51865.840
979.813;19419.369;    2.294;51533.199
980.330;19181.094;    2.270;51120.422
980.847;18945.170;    2.719;50668.754
981.364;18730.967;    2.684;50289.602
981.882;18534.094;    2.644;49911.637
982.399;18349.740;    2.589;49598.129
982.916;18150.156;    2.517;49259.723
983.433;17965.143;    2.962;48947.969
983.950;17801.596;    3.203;48633.215
984.466;17668.445;    3.113;48387.238
984.983;17512.592;    2.673;48042.805
985.500;17371.738;    2.572;47802.168
986.017;17213.547;    2.683;47532.930
986.533;17097.289;    2.923;47317.250
987.050;16978.709;    2.903;46966.617
987.566;16839.719;    2.587;46668.813
988.083;16742.836;    2.309;46380.609
988.599;16680.943;    2.834;46166.215
989.115;16612.404;    3.257;45851.758
989.632;16516.166;    3.287;45588.469
990.148;16376.713;    2.962;45174.547
990.664;16241.692;    2.346;44854.375
991.180;16181.449;    2.416;44672.984
991.696;16099.016;    2.682;44452.504
992.212;15985.168;    2.522;44152.266
992.728;15886.197;    1.972;43964.152
993.244;15827.997;    1.713;43750.309
993.759;15809.234;    1.810;43581.016
994.275;15786.721;    2.432;43455.055
994.791;15711.596;    2.527;43199.113
995.306;15646.905;    2.440;42908.988
995.822;15585.474;    2.209;42579.008
996.337;15523.563;    2.030;42137.359
996.853;15452.867;    2.282;41768.715
997.368;15375.801;    2.360;41480.547
997.883;15340.359;    2.197;41091.008
998.399;15337.526;    2.144;40724.305
998.914;15306.716;    2.007;40468.547
999.429;15317.173;    2.112;40357.430
999.944;15374.934;    2.557;40297.449
1000.459;15427.264;    2.383;40163.867
1000.974;15454.844;    2.330;39916.711
1001.489;15396.938;    1.780;39623.426
1002.003;15369.901;    1.487;39384.430
1002.518;15387.072;    1.920;39180.191
1003.033;15382.165;    2.064;38910.250
1003.547;15329.537;    1.912;38641.512
1004.062;15293.979;    1.749;38428.656
1004.576;15253.460;    1.609;38101.621
1005.091;15292.114;    2.179;37897.547
1005.605;15310.830;    2.549;37715.797
1006.120;15313.761;    2.143;37495.773
1006.634;15308.313;    1.790;37185.254
1007.148;15338.106;    1.649;36862.855
1007.662;15374.872;    1.896;36473.949
1008.176;15448.099;    2.389;36386.141
1008.690;15501.257;    2.346;36271.355
1009.204;15522.640;    2.019;36016.840
1009.718;15539.905;    1.769;35684.918
1010.232;15607.491;    2.030;35388.047
1010.745;15625.464;    2.490;35116.422
1011.259;15642.968;    2.697;34913.055
1011.773;15687.426;    2.347;34621.551
1012.286;15761.191;    2.146;34371.059
1012.800;15844.648;    2.349;34085.102
1013.313;15975.257;    3.010;33880.461
1013.827;16057.227;    3.240;33727.223
1014.340;16175.254;    3.039;33545.277
1014.853;16262.630;    2.664;33300.844
1015.366;16302.634;    2.482;32898.785
1015.879;16329.593;    2.762;32553.359
1016.392;16363.174;    2.932;32282.133
1016.905;16378.754;    2.604;32026.051
1017.418;16423.316;    2.217;31785.176
1017.931;16470.859;    1.953;31554.885
1018.444;16536.424;    2.086;31295.619
1018.957;16620.729;    2.570;31150.408
1019.469;16720.305;    2.520;30979.613
1019.982;16820.945;    2.150;30731.809
1020.495;16890.078;    1.846;30422.285
1021.007;16954.898;    1.850;30041.791
1021.520;17019.123;    2.164;29747.840
1022.032;17098.352;    2.184;29453.471
1022.544;17208.379;    1.869;29166.754
1023.056;17279.412;    1.552;28804.457
1023.569;17349.006;    1.537;28556.045
1024.081;17461.094;    1.987;28375.811
1024.593;17545.422;    2.284;28091.252
1025.105;17630.311;    2.132;27792.154
1025.617;17726.068;    1.929;27553.668
1026.129;17781.973;    1.774;27290.357
1026.640;17869.885;    2.229;27076.352
1027.152;17958.436;    2.630;26809.574
1027.664;18047.268;    2.722;26490.369
1028.175;18174.074;    2.654;26329.713
1028.687;18259.568;    2.337;26039.875
1029.198;18306.465;    2.503;25655.727
1029.710;18408.246;    3.090;25365.354
1030.221;18488.172;    3.069;25063.055
1030.732;18579.703;    2.882;24800.590
1031.244;18633.730;    2.433;24537.537
1031.755;18668.650;    2.137;24251.926
1032.266;18739.049;    2.573;24028.807
1032.777;18833.635;    2.790;23860.662
1033.288;18881.740;    2.463;23568.455
1033.799;18968.443;    2.336;23215.146
1034.309;19084.529;    2.343;22963.000
1034.820;19180.539;    2.717;22662.727
1035.331;19305.373;    3.333;22417.885
1035.842;19381.033;    3.277;22090.092
1036.352;19510.064;    3.279;21801.348
1036.863;19667.408;    3.303;21652.621
1037.373;19738.395;    3.344;21424.164
1037.884;19783.248;    3.799;21041.703
1038.394;19924.100;    4.207;20804.199
1038.904;20026.367;    3.833;20515.896
1039.414;20142.398;    3.537;20313.012
1039.924;20211.617;    3.119;20077.188
1040.434;20248.527;    3.119;19719.982
1040.944;20372.627;    3.030;19532.789
1041.454;20467.850;    2.576;19384.912
1041.964;20485.236;    1.752;19087.643
1042.474;20548.949;    1.684;18844.938
1042.984;20628.182;    2.099;18594.365
1043.493;20686.230;    2.466;18367.119
1044.003;20765.383;    2.487;18155.055
1044.513;20829.785;    2.329;17871.613
1045.022;20887.445;    2.163;17585.314
1045.531;20984.939;    2.847;17309.871
1046.041;21025.064;    3.176;16993.605
1046.550;21081.762;    3.082;16713.688
1047.059;21143.926;    2.839;16379.297
1047.568;21232.150;    2.723;16151.854
1048.077;21319.010;    2.920;15980.566
1048.586;21427.842;    3.289;15843.576
1049.095;21481.396;    2.837;15698.096
1049.604;21590.645;    2.484;15584.145
1050.113;21693.941;    2.252;15427.253
1050.622;21799.705;    2.439;15308.589
1051.130;21848.211;    2.810;15082.664
1051.639;21912.641;    2.864;14862.076
1052.148;21990.166;    2.637;14645.816
1052.656;22116.789;    2.717;14487.964
1053.165;22197.123;    2.860;14279.916
1053.673;22262.826;    3.250;14054.473
1054.181;22320.492;    3.344;13876.803
1054.689;22388.803;    3.040;13713.152
1055.198;22429.305;    2.759;13537.778
1055.706;22438.002;    2.224;13324.923
1056.214;22436.854;    2.103;13131.906
1056.722;22414.822;    2.044;12938.912
1057.230;22440.266;    1.694;12785.721
1057.737;22433.570;    1.372;12564.434
1058.245;22424.244;    1.187;12349.795
1058.753;22421.219;    1.197;12117.972
1059.260;22422.740;    1.950;11907.732
1059.768;22374.514;    2.176;11648.731
1060.276;22363.389;    2.266;11439.057
1060.783;22322.865;    2.082;11230.695
1061.290;22336.506;    2.136;11094.542
1061.798;22354.160;    2.334;10972.809
1062.305;22385.840;    3.027;10880.651
1062.812;22376.982;    2.983;10728.360
1063.319;22396.893;    2.737;10627.897
1063.826;22417.666;    2.776;10498.917
1064.333;22411.762;    3.279;10372.106
1064.840;22374.432;    3.453;10197.577
1065.347;22328.535;    3.526;10012.375
1065.853;22231.754;    2.713; 9772.009
1066.360;22188.102;    2.362; 9597.981
1066.867;22161.891;    2.513; 9465.561
1067.373;22130.586;    2.569; 9357.037
1067.880;22121.291;    2.506; 9242.722
1068.386;22123.916;    2.879; 9132.897
1068.893;22108.969;    2.800; 9048.545
1069.399;22113.188;    3.000; 9030.695
1069.905;22087.182;    3.579; 8954.759
1070.411;22012.877;    3.569; 8798.769
1070.917;21918.354;    3.347; 8647.953
1071.423;21790.283;    3.076; 8453.875
1071.929;21673.736;    2.506; 8304.103
1072.435;21533.988;    2.697; 8115.749
1072.941;21418.830;    3.044; 7933.825
1073.447;21310.002;    2.792; 7803.302
1073.952;21219.582;    2.643; 7733.983
1074.458;21138.277;    2.493; 7656.602
1074.963;21061.135;    2.722; 7592.441
1075.469;20966.080;    2.964; 7512.932
1075.974;20916.225;    3.243; 7468.063
1076.480;20799.664;    2.909; 7376.791
1076.985;20661.994;    2.632; 7261.283
1077.490;20515.717;    2.774; 7114.183
1077.995;20359.814;    3.122; 6976.710
1078.500;20192.084;    3.053; 6843.616
1079.005;20050.396;    2.957; 6752.896
1079.510;19889.697;    2.196; 6668.232
1080.015;19781.545;    2.196; 6636.338
1080.520;19655.648;    2.507; 6585.188
1081.025;19527.986;    2.746; 6518.342
1081.529;19369.188;    2.454; 6424.997
1082.034;19199.719;    2.220; 6316.505
1082.538;19036.055;    2.122; 6217.849
1083.043;18865.107;    2.567; 6112.647
1083.547;18619.049;    2.839; 5910.792
1084.051;18417.246;    2.799; 5784.195
1084.556;18207.021;    2.287; 5659.222
1085.060;18060.807;    2.177; 5615.208
1085.564;17946.252;    2.460; 5618.755
1086.068;17760.246;    2.744; 5536.627
1086.572;17558.102;    2.696; 5430.294
1087.076;17440.348;    2.346; 5439.927
1087.579;17291.375;    2.072; 5404.441
1088.083;17143.023;    2.159; 5376.665
1088.587;16998.555;    2.490; 5355.822
1089.090;16824.064;    2.607; 5288.697
1089.594;16700.779;    2.523; 5284.645
1090.098;16588.311;    2.460; 5291.539
1090.601;16429.529;    2.553; 5244.263
1091.104;16264.279;    2.830; 5195.975
1091.608;16107.065;    3.040; 5150.841
1092.111;15921.463;    2.816; 5072.273
1092.614;15742.010;    2.429; 5008.488
1093.117;15559.096;    2.024; 4942.912
1093.620;15383.040;    2.177; 4875.650
1094.123;15234.699;    2.384; 4829.920
1094.626;15118.029;    2.306; 4815.296
1095.128;15003.501;    2.209; 4803.711
1095.631;14874.494;    1.953; 4762.972
1096.134;14812.361;    2.140; 4802.609
1096.636;14691.941;    2.423; 4762.596
1097.139;14591.161;    2.472; 4759.360
1097.641;14461.809;    2.163; 4711.942
1098.144;14360.431;    1.896; 4694.844
1098.646;14247.652;    1.749; 4653.817
1099.148;14147.973;    2.306; 4617.034
1099.650;14021.941;    2.543; 4541.768
1100.152;13992.648;    2.624; 4591.478
1100.654;13949.368;    2.053; 4606.142
1101.156;13897.529;    1.739; 4603.552
1101.658;13879.282;    2.094; 4649.595
1102.160;13849.408;    2.372; 4676.285
1102.661;13815.410;    2.084; 4691.736
1103.163;13769.988;    1.644; 4682.379
1103.665;13688.457;    1.396; 4610.822
1104.166;13646.858;    2.013; 4592.904
1104.668;13625.954;    2.654; 4596.018
1105.169;13555.318;    2.604; 4517.614
1105.670;13560.290;    2.594; 4541.507
1106.172;13552.424;    2.633; 4537.230
1106.673;13535.393;    2.646; 4521.662
1107.174;13544.316;    3.170; 4534.950
1107.675;13520.994;    3.092; 4504.059
1108.176;13512.807;    2.919; 4492.615
1108.677;13518.029;    2.780; 4496.758
1109.177;13474.754;    2.736; 4410.517
1109.678;13459.564;    2.997; 4375.675
1110.179;13488.492;    3.584; 4392.108
1110.679;13487.535;    3.229; 4371.376
1111.180;13513.204;    2.934; 4386.493
1111.680;13536.657;    2.722; 4401.255
1112.181;13535.333;    2.937; 4382.575
1112.681;13537.108;    3.180; 4381.578
1113.181;13522.128;    2.914; 4349.369
1113.681;13495.458;    2.363; 4313.968
1114.181;13466.004;    2.090; 4282.822
1114.681;13416.852;    2.232; 4218.349
1115.181;13341.414;    2.617; 4122.668
1115.681;13290.535;    2.642; 4071.019
1116.181;13227.136;    2.194; 4013.261
1116.681;13178.354;    2.032; 3984.944
1117.180;13096.824;    1.989; 3922.824
1117.680;12995.654;    2.422; 3841.386
1118.179;12908.994;    2.506; 3786.503
1118.679;12831.711;    2.299; 3752.450
1119.178;12741.442;    1.994; 3702.206
1119.677;12656.504;    1.892; 3669.481
1120.177;12553.870;    2.096; 3623.697
1120.676;12441.566;    2.334; 3572.163
1121.175;12323.051;    2.174; 3514.432
1121.674;12199.094;    1.890; 3471.236
1122.173;12083.121;    1.629; 3444.517
1122.672;11933.821;    1.823; 3383.060
1123.170;11783.955;    2.270; 3329.537
1123.669;11616.627;    2.413; 3257.476
1124.168;11449.787;    2.217; 3185.566
1124.666;11306.818;    2.097; 3157.632
1125.165;11144.803;    2.352; 3100.342
1125.663;10968.415;    2.784; 3024.888
1126.161;10794.831;    2.783; 2957.844
1126.660;10617.274;    2.483; 2888.217
1127.158;10459.457;    2.226; 2847.043
1127.656;10300.674;    2.394; 2805.782
1128.154;10126.054;    2.723; 2743.097
1128.652; 9958.011;    2.927; 2695.135
1129.150; 9773.889;    2.743; 2629.151
1129.648; 9606.807;    3.150; 2584.330
1130.146; 9432.782;    3.444; 2529.145
1130.643; 9262.960;    3.749; 2482.469
1131.141; 9070.365;    3.964; 2407.491
1131.638; 8876.867;    3.662; 2327.719
1132.136; 8689.266;    3.180; 2248.120
1132.633; 8529.660;    3.030; 2204.013
1133.130; 8352.297;    2.537; 2135.113
1133.628; 8194.966;    2.604; 2093.670
1134.125; 8020.058;    2.526; 2025.073
1134.622; 7887.021;    2.144; 2010.190
1135.119; 7750.323;    1.992; 1985.589
1135.616; 7595.681;    2.067; 1938.569
1136.113; 7436.760;    2.550; 1885.344
1136.610; 7310.195;    2.687; 1871.835
1137.106; 7169.584;    2.326; 1833.252
1137.603; 7026.700;    2.083; 1792.829
1138.099; 6876.054;    2.197; 1737.667
1138.596; 6734.654;    2.414; 1692.750
1139.092; 6611.518;    2.806; 1671.765
1139.589; 6485.754;    2.634; 1650.065
1140.085; 6341.353;    2.349; 1599.450
1140.581; 6197.436;    2.139; 1546.986
1141.077; 6086.775;    2.413; 1532.773
1141.573; 5970.318;    2.539; 1506.949
1142.069; 5856.970;    2.557; 1489.667
1142.565; 5737.271;    2.262; 1457.024
1143.061; 5624.694;    1.889; 1426.755
1143.557; 5509.284;    2.149; 1396.590
1144.053; 5390.646;    2.483; 1360.365
1144.548; 5261.351;    2.506; 1305.560
1145.044; 5151.804;    2.410; 1281.092
1145.539; 5053.511;    2.326; 1266.983
1146.035; 4947.875;    2.292; 1240.785
1146.530; 4853.014;    2.594; 1229.922
1147.025; 4782.160;    2.654; 1248.090
1147.520; 4722.161;    2.877; 1276.898
1148.015; 4665.416;    2.840; 1314.400
1148.510; 4581.735;    2.797; 1311.918
1149.005; 4494.861;    3.192; 1303.986
1149.500; 4414.168;    3.476; 1305.616
1149.995; 4318.893;    3.470; 1280.368
1150.490; 4200.250;    3.074; 1215.801
1150.984; 4090.465;    2.562; 1165.601
1151.479; 3970.984;    2.486; 1098.066
1151.973; 3871.141;    2.662; 1053.232
1152.468; 3767.963;    2.397; 1003.382
1152.962; 3668.982;    2.156;  956.020
1153.456; 3596.802;    2.157;  952.558
1153.950; 3523.850;    2.269;  943.715
1154.445; 3452.865;    2.806;  934.926
1154.939; 3385.087;    2.849;  926.575
1155.432; 3312.858;    2.677;  913.804
1155.926; 3242.690;    2.436;  897.591
1156.420; 3172.670;    2.254;  880.284
1156.914; 3078.723;    2.156;  826.262
1157.408; 3011.961;    2.360;  814.630
1157.901; 2947.631;    2.097;  805.590
1158.395; 2886.633;    1.899;  800.486
1158.888; 2818.801;    1.689;  782.174
1159.381; 2756.954;    1.963;  773.196
1159.875; 2699.268;    2.367;  766.613
1160.368; 2650.560;    2.614;  768.124

